##TITLE=No Description
##DATA TYPE=INFRARED SPECTRUM
##XUNITS=1/CM
##YUNITS=%T
399.452061  	89.191684 
400.888939  	87.375366 
402.325817  	87.512937 
403.762695  	86.959603 
405.199573  	85.958922 
406.636451  	86.107866 
408.073328  	85.727565 
409.510206  	86.520607 
410.947084  	87.321178 
412.383962  	86.347543 
413.820840  	86.141675 
415.257718  	85.483824 
416.694596  	84.027689 
418.131474  	83.747751 
419.568352  	82.923582 
421.005230  	81.829136 
422.442108  	81.382305 
423.878986  	80.929687 
425.315863  	81.172224 
426.752741  	81.501976 
428.189619  	81.544653 
429.626497  	81.551517 
431.063375  	81.586804 
432.500253  	82.599039 
433.937131  	83.612718 
435.374009  	83.971876 
436.810887  	84.989968 
438.247765  	85.545111 
439.684643  	85.156384 
441.121521  	85.046370 
442.558398  	85.298754 
443.995276  	85.734130 
445.432154  	85.742647 
446.869032  	85.283758 
448.305910  	85.409554 
449.742788  	85.594320 
451.179666  	85.496119 
452.616544  	85.804138 
454.053422  	86.155143 
455.490300  	86.471933 
456.927178  	86.570581 
458.364056  	86.082525 
459.800933  	85.966608 
461.237811  	86.084635 
462.674689  	86.033056 
464.111567  	86.207035 
465.548445  	86.502204 
466.985323  	86.639434 
468.422201  	86.391190 
469.859079  	86.201737 
471.295957  	86.337978 
472.732835  	86.088397 
474.169713  	85.528678 
475.606591  	84.905734 
477.043469  	84.119998 
478.480346  	83.710210 
479.917224  	83.159941 
481.354102  	81.993501 
482.790980  	81.233006 
484.227858  	80.719310 
485.664736  	80.066371 
487.101614  	79.997206 
488.538492  	80.382424 
489.975370  	80.800468 
491.412248  	81.239726 
492.849126  	81.785131 
494.286004  	82.416398 
495.722881  	82.976111 
497.159759  	83.668403 
498.596637  	84.242829 
500.033515  	84.431585 
501.470393  	84.649145 
502.907271  	84.721970 
504.344149  	84.769182 
505.781027  	85.079870 
507.217905  	85.168897 
508.654783  	85.299327 
510.091661  	85.537670 
511.528539  	85.367524 
512.965416  	85.341113 
514.402294  	85.496650 
515.839172  	85.432416 
517.276050  	85.449057 
518.712928  	85.205215 
520.149806  	84.821238 
521.586684  	84.874115 
523.023562  	84.978747 
524.460440  	85.125768 
525.897318  	85.226381 
527.334196  	84.886688 
528.771074  	84.703653 
530.207951  	84.674420 
531.644829  	84.472643 
533.081707  	84.449698 
534.518585  	84.490539 
535.955463  	84.349896 
537.392341  	84.113444 
538.829219  	83.951938 
540.266097  	84.107389 
541.702975  	84.198175 
543.139853  	83.999208 
544.576731  	83.893337 
546.013609  	83.707929 
547.450486  	83.467006 
548.887364  	83.486568 
550.324242  	83.465787 
551.761120  	83.344548 
553.197998  	83.280902 
554.634876  	83.217295 
556.071754  	83.199414 
557.508632  	83.150746 
558.945510  	83.032556 
560.382388  	82.878846 
561.819266  	82.703499 
563.256144  	82.688156 
564.693021  	82.665532 
566.129899  	82.449291 
567.566777  	82.285791 
569.003655  	82.185139 
570.440533  	82.170683 
571.877411  	82.259797 
573.314289  	82.119055 
574.751167  	81.902762 
576.188045  	81.918356 
577.624923  	81.922550 
579.061801  	81.782558 
580.498679  	81.562189 
581.935556  	81.361371 
583.372434  	81.314969 
584.809312  	81.324951 
586.246190  	81.283468 
587.683068  	81.191594 
589.119946  	81.057774 
590.556824  	80.896647 
591.993702  	80.703430 
593.430580  	80.636941 
594.867458  	80.723282 
596.304336  	80.688838 
597.741214  	80.541749 
599.178091  	80.476427 
600.614969  	80.492967 
602.051847  	80.457416 
603.488725  	80.280578 
604.925603  	80.211797 
606.362481  	80.224344 
607.799359  	80.037531 
609.236237  	79.907654 
610.673115  	79.987612 
612.109993  	79.903300 
613.546871  	79.805359 
614.983749  	79.823032 
616.420626  	79.749053 
617.857504  	79.701424 
619.294382  	79.715100 
620.731260  	79.634080 
622.168138  	79.572482 
623.605016  	79.576761 
625.041894  	79.574806 
626.478772  	79.556721 
627.915650  	79.536004 
629.352528  	79.511491 
630.789406  	79.474797 
632.226284  	79.417338 
633.663161  	79.374022 
635.100039  	79.373067 
636.536917  	79.390835 
637.973795  	79.421117 
639.410673  	79.422302 
640.847551  	79.403580 
642.284429  	79.379296 
643.721307  	79.402440 
645.158185  	79.461386 
646.595063  	79.534119 
648.031941  	79.618923 
649.468819  	79.636175 
650.905696  	79.641392 
652.342574  	79.700431 
653.779452  	79.744689 
655.216330  	79.806514 
656.653208  	79.983581 
658.090086  	80.022780 
659.526964  	79.992689 
660.963842  	80.105293 
662.400720  	80.263153 
663.837598  	80.397270 
665.274476  	80.466542 
666.711354  	80.532136 
668.148231  	80.605336 
669.585109  	80.677148 
671.021987  	80.716424 
672.458865  	80.813103 
673.895743  	80.895531 
675.332621  	80.974427 
676.769499  	81.096747 
678.206377  	81.193955 
679.643255  	81.285681 
681.080133  	81.372920 
682.517011  	81.476739 
683.953889  	81.590509 
685.390766  	81.663590 
686.827644  	81.766835 
688.264522  	81.932230 
689.701400  	82.080247 
691.138278  	82.215583 
692.575156  	82.361795 
694.012034  	82.480938 
695.448912  	82.563466 
696.885790  	82.695738 
698.322668  	82.871972 
699.759546  	83.002378 
701.196424  	83.117923 
702.633301  	83.276832 
704.070179  	83.385651 
705.507057  	83.421896 
706.943935  	83.561457 
708.380813  	83.754498 
709.817691  	83.903857 
711.254569  	84.036307 
712.691447  	84.150398 
714.128325  	84.297627 
715.565203  	84.463732 
717.002081  	84.582398 
718.438959  	84.730337 
719.875837  	84.883723 
721.312714  	84.973072 
722.749592  	85.102710 
724.186470  	85.321865 
725.623348  	85.467382 
727.060226  	85.601509 
728.497104  	85.745953 
729.933982  	85.865740 
731.370860  	85.994080 
732.807738  	86.158647 
734.244616  	86.310730 
735.681494  	86.409577 
737.118372  	86.528056 
738.555249  	86.666077 
739.992127  	86.756877 
741.429005  	86.853481 
742.865883  	87.011585 
744.302761  	87.191492 
745.739639  	87.309798 
747.176517  	87.412774 
748.613395  	87.600071 
750.050273  	87.784050 
751.487151  	87.932438 
752.924029  	88.094003 
754.360907  	88.195764 
755.797784  	88.266754 
757.234662  	88.353894 
758.671540  	88.452615 
760.108418  	88.633322 
761.545296  	88.795439 
762.982174  	88.896123 
764.419052  	89.054944 
765.855930  	89.176706 
767.292808  	89.279516 
768.729686  	89.430183 
770.166564  	89.498290 
771.603442  	89.601578 
773.040319  	89.748727 
774.477197  	89.785140 
775.914075  	89.919061 
777.350953  	90.118665 
778.787831  	90.195190 
780.224709  	90.308146 
781.661587  	90.396966 
783.098465  	90.432643 
784.535343  	90.609069 
785.972221  	90.743582 
787.409099  	90.752541 
788.845977  	90.838202 
790.282854  	90.929467 
791.719732  	90.954551 
793.156610  	91.019911 
794.593488  	91.118341 
796.030366  	91.149351 
797.467244  	91.109908 
798.904122  	91.092718 
800.341000  	91.045574 
801.777878  	90.875794 
803.214756  	90.646695 
804.651634  	90.329906 
806.088512  	89.761251 
807.525389  	88.753239 
808.962267  	87.092368 
810.399145  	84.387672 
811.836023  	80.036781 
813.272901  	74.258314 
814.709779  	68.622451 
816.146657  	65.320346 
817.583535  	65.990694 
819.020413  	70.520488 
820.457291  	76.955372 
821.894169  	82.648053 
823.331047  	86.456800 
824.767924  	88.690372 
826.204802  	89.985960 
827.641680  	90.823092 
829.078558  	91.437034 
830.515436  	91.936780 
831.952314  	92.322896 
833.389192  	92.613826 
834.826070  	92.883167 
836.262948  	93.121388 
837.699826  	93.308123 
839.136704  	93.452867 
840.573582  	93.582637 
842.010459  	93.718486 
843.447337  	93.819846 
844.884215  	93.906780 
846.321093  	94.018725 
847.757971  	94.131435 
849.194849  	94.253181 
850.631727  	94.350747 
852.068605  	94.414830 
853.505483  	94.504621 
854.942361  	94.559215 
856.379239  	94.578760 
857.816117  	94.666993 
859.252994  	94.780168 
860.689872  	94.864181 
862.126750  	94.938346 
863.563628  	94.998410 
865.000506  	95.041949 
866.437384  	95.067611 
867.874262  	95.098724 
869.311140  	95.130973 
870.748018  	95.151590 
872.184896  	95.223762 
873.621774  	95.304046 
875.058652  	95.313081 
876.495529  	95.307465 
877.932407  	95.303552 
879.369285  	95.327416 
880.806163  	95.415437 
882.243041  	95.472865 
883.679919  	95.468733 
885.116797  	95.454203 
886.553675  	95.453377 
887.990553  	95.471939 
889.427431  	95.444994 
890.864309  	95.401001 
892.301187  	95.418106 
893.738064  	95.410674 
895.174942  	95.360632 
896.611820  	95.333586 
898.048698  	95.309359 
899.485576  	95.282714 
900.922454  	95.231947 
902.359332  	95.159381 
903.796210  	95.109706 
905.233088  	95.014727 
906.669966  	94.877158 
908.106844  	94.784995 
909.543722  	94.676188 
910.980599  	94.505383 
912.417477  	94.310948 
913.854355  	94.073922 
915.291233  	93.783392 
916.728111  	93.438724 
918.164989  	93.035613 
919.601867  	92.644076 
921.038745  	92.310450 
922.475623  	91.983319 
923.912501  	91.633631 
925.349379  	91.223592 
926.786257  	90.662314 
928.223134  	89.913310 
929.660012  	88.955916 
931.096890  	87.766962 
932.533768  	86.345064 
933.970646  	84.669133 
935.407524  	82.869137 
936.844402  	80.973630 
938.281280  	78.628111 
939.718158  	75.606380 
941.155036  	71.600761 
942.591914  	66.251424 
944.028792  	60.003645 
945.465670  	53.416983 
946.902547  	47.129407 
948.339425  	42.226247 
949.776303  	39.211161 
951.213181  	38.876323 
952.650059  	41.751125 
954.086937  	47.059869 
955.523815  	53.976942 
956.960693  	61.611399 
958.397571  	69.135896 
959.834449  	75.823993 
961.271327  	81.007992 
962.708205  	84.614674 
964.145082  	87.072306 
965.581960  	88.805328 
967.018838  	90.032265 
968.455716  	90.962019 
969.892594  	91.716747 
971.329472  	92.342147 
972.766350  	92.914292 
974.203228  	93.375898 
975.640106  	93.743206 
977.076984  	94.140920 
978.513862  	94.494751 
979.950740  	94.759294 
981.387617  	94.980970 
982.824495  	95.155047 
984.261373  	95.331190 
985.698251  	95.485075 
987.135129  	95.598909 
988.572007  	95.743944 
990.008885  	95.853486 
991.445763  	95.927339 
992.882641  	96.047442 
994.319519  	96.141729 
995.756397  	96.189261 
997.193275  	96.218650 
998.630152  	96.227407 
1000.067030  	96.255751 
1001.503908  	96.278557 
1002.940786  	96.296026 
1004.377664  	96.335354 
1005.814542  	96.335122 
1007.251420  	96.327962 
1008.688298  	96.361057 
1010.125176  	96.383038 
1011.562054  	96.392293 
1012.998932  	96.383175 
1014.435810  	96.364856 
1015.872687  	96.375182 
1017.309565  	96.376939 
1018.746443  	96.369916 
1020.183321  	96.371248 
1021.620199  	96.351465 
1023.057077  	96.327583 
1024.493955  	96.311162 
1025.930833  	96.302921 
1027.367711  	96.299920 
1028.804589  	96.275745 
1030.241467  	96.257590 
1031.678345  	96.246600 
1033.115222  	96.213658 
1034.552100  	96.176228 
1035.988978  	96.124955 
1037.425856  	96.078905 
1038.862734  	96.044701 
1040.299612  	95.973119 
1041.736490  	95.898104 
1043.173368  	95.811596 
1044.610246  	95.695881 
1046.047124  	95.625968 
1047.484002  	95.541405 
1048.920880  	95.405492 
1050.357757  	95.304783 
1051.794635  	95.195066 
1053.231513  	95.055576 
1054.668391  	94.912946 
1056.105269  	94.734782 
1057.542147  	94.567919 
1058.979025  	94.408211 
1060.415903  	94.216120 
1061.852781  	94.024705 
1063.289659  	93.779423 
1064.726537  	93.500136 
1066.163415  	93.273504 
1067.600292  	93.014271 
1069.037170  	92.708982 
1070.474048  	92.417120 
1071.910926  	92.085120 
1073.347804  	91.764038 
1074.784682  	91.505823 
1076.221560  	91.174391 
1077.658438  	90.724370 
1079.095316  	90.221891 
1080.532194  	89.674312 
1081.969072  	89.079529 
1083.405950  	88.385792 
1084.842827  	87.549538 
1086.279705  	86.628862 
1087.716583  	85.583328 
1089.153461  	84.369192 
1090.590339  	83.062275 
1092.027217  	81.630342 
1093.464095  	80.121276 
1094.900973  	78.574024 
1096.337851  	76.845533 
1097.774729  	75.112874 
1099.211607  	73.462227 
1100.648485  	71.799922 
1102.085362  	70.417429 
1103.522240  	69.308246 
1104.959118  	68.465057 
1106.395996  	68.104018 
1107.832874  	67.967852 
1109.269752  	68.101791 
1110.706630  	68.551264 
1112.143508  	69.017433 
1113.580386  	69.625950 
1115.017264  	70.242772 
1116.454142  	70.638129 
1117.891020  	70.819871 
1119.327897  	70.388348 
1120.764775  	69.219535 
1122.201653  	67.435194 
1123.638531  	65.019923 
1125.075409  	62.610361 
1126.512287  	60.789695 
1127.949165  	59.845304 
1129.386043  	60.200121 
1130.822921  	61.547198 
1132.259799  	63.669440 
1133.696677  	66.475391 
1135.133555  	69.378669 
1136.570432  	72.104029 
1138.007310  	74.425458 
1139.444188  	76.147912 
1140.881066  	77.381886 
1142.317944  	78.109192 
1143.754822  	78.387137 
1145.191700  	78.347923 
1146.628578  	77.947429 
1148.065456  	77.308020 
1149.502334  	76.440142 
1150.939212  	75.221050 
1152.376090  	73.811006 
1153.812967  	72.181733 
1155.249845  	70.387869 
1156.686723  	68.752439 
1158.123601  	67.303062 
1159.560479  	66.371792 
1160.997357  	66.304881 
1162.434235  	67.063150 
1163.871113  	68.856679 
1165.307991  	71.591448 
1166.744869  	74.918103 
1168.181747  	78.506854 
1169.618625  	81.894410 
1171.055502  	84.840720 
1172.492380  	87.243249 
1173.929258  	89.069009 
1175.366136  	90.438000 
1176.803014  	91.472237 
1178.239892  	92.223697 
1179.676770  	92.770499 
1181.113648  	93.196122 
1182.550526  	93.513648 
1183.987404  	93.733393 
1185.424282  	93.881813 
1186.861160  	94.016743 
1188.298038  	94.192131 
1189.734915  	94.372101 
1191.171793  	94.557427 
1192.608671  	94.771077 
1194.045549  	94.959274 
1195.482427  	95.117630 
1196.919305  	95.251389 
1198.356183  	95.340222 
1199.793061  	95.419184 
1201.229939  	95.467969 
1202.666817  	95.490030 
1204.103695  	95.546763 
1205.540573  	95.580994 
1206.977450  	95.573100 
1208.414328  	95.576761 
1209.851206  	95.576263 
1211.288084  	95.571642 
1212.724962  	95.555158 
1214.161840  	95.526235 
1215.598718  	95.514168 
1217.035596  	95.489776 
1218.472474  	95.474657 
1219.909352  	95.465559 
1221.346230  	95.386564 
1222.783108  	95.302379 
1224.219985  	95.245007 
1225.656863  	95.161412 
1227.093741  	95.098000 
1228.530619  	95.043713 
1229.967497  	94.962258 
1231.404375  	94.878898 
1232.841253  	94.769958 
1234.278131  	94.649289 
1235.715009  	94.541601 
1237.151887  	94.442082 
1238.588765  	94.378328 
1240.025643  	94.307140 
1241.462520  	94.200077 
1242.899398  	94.109530 
1244.336276  	94.021340 
1245.773154  	93.911732 
1247.210032  	93.779288 
1248.646910  	93.614481 
1250.083788  	93.445618 
1251.520666  	93.304732 
1252.957544  	93.223076 
1254.394422  	93.177622 
1255.831300  	93.116284 
1257.268178  	93.064525 
1258.705055  	92.996245 
1260.141933  	92.863551 
1261.578811  	92.727451 
1263.015689  	92.600575 
1264.452567  	92.461668 
1265.889445  	92.318310 
1267.326323  	92.138501 
1268.763201  	91.937783 
1270.200079  	91.744579 
1271.636957  	91.535088 
1273.073835  	91.295560 
1274.510713  	91.003492 
1275.947590  	90.659618 
1277.384468  	90.282914 
1278.821346  	89.870483 
1280.258224  	89.419680 
1281.695102  	88.896766 
1283.131980  	88.316057 
1284.568858  	87.725088 
1286.005736  	87.111086 
1287.442614  	86.485993 
1288.879492  	85.849788 
1290.316370  	85.210159 
1291.753248  	84.587218 
1293.190125  	83.955156 
1294.627003  	83.375391 
1296.063881  	82.834705 
1297.500759  	82.271002 
1298.937637  	81.785665 
1300.374515  	81.380392 
1301.811393  	81.058682 
1303.248271  	80.864443 
1304.685149  	80.713160 
1306.122027  	80.647573 
1307.558905  	80.685664 
1308.995783  	80.768063 
1310.432660  	80.955237 
1311.869538  	81.192122 
1313.306416  	81.476060 
1314.743294  	81.890536 
1316.180172  	82.367852 
1317.617050  	82.928594 
1319.053928  	83.583728 
1320.490806  	84.270901 
1321.927684  	85.015898 
1323.364562  	85.762854 
1324.801440  	86.438700 
1326.238318  	87.061646 
1327.675195  	87.376585 
1329.112073  	87.726140 
1330.548951  	88.052596 
1331.985829  	88.014791 
1333.422707  	87.960822 
1334.859585  	87.546736 
1336.296463  	86.899865 
1337.733341  	86.080357 
1339.170219  	85.238300 
1340.607097  	84.703263 
1342.043975  	84.827500 
1343.480853  	85.486373 
1344.917730  	86.497140 
1346.354608  	87.552094 
1347.791486  	88.272598 
1349.228364  	88.818467 
1350.665242  	89.377529 
1352.102120  	89.730999 
1353.538998  	89.623614 
1354.975876  	89.242437 
1356.412754  	88.720602 
1357.849632  	88.150754 
1359.286510  	86.765353 
1360.723388  	85.148428 
1362.160265  	83.136399 
1363.597143  	80.866847 
1365.034021  	78.873752 
1366.470899  	77.310544 
1367.907777  	76.761697 
1369.344655  	76.789979 
1370.781533  	77.103483 
1372.218411  	77.256714 
1373.655289  	76.715503 
1375.092167  	75.059038 
1376.529045  	73.121678 
1377.965923  	71.283510 
1379.402800  	70.669582 
1380.839678  	71.897516 
1382.276556  	74.095525 
1383.713434  	76.650779 
1385.150312  	79.458211 
1386.587190  	81.650277 
1388.024068  	83.601797 
1389.460946  	84.773395 
1390.897824  	86.067923 
1392.334702  	86.277118 
1393.771580  	86.347589 
1395.208458  	86.384964 
1396.645335  	86.394681 
1398.082213  	86.369156 
1399.519091  	86.313614 
1400.955969  	86.213230 
1402.392847  	86.141329 
1403.829725  	85.977884 
1405.266603  	85.772551 
1406.703481  	85.716907 
1408.140359  	85.721856 
1409.577237  	85.780937 
1411.014115  	85.981677 
1412.450993  	86.240450 
1413.887871  	86.566959 
1415.324748  	86.924907 
1416.761626  	87.236888 
1418.198504  	87.599413 
1419.635382  	87.984244 
1421.072260  	88.304025 
1422.509138  	88.590748 
1423.946016  	88.849931 
1425.382894  	89.114130 
1426.819772  	89.375883 
1428.256650  	89.614523 
1429.693528  	89.862674 
1431.130406  	90.093599 
1432.567283  	90.321183 
1434.004161  	90.550814 
1435.441039  	90.767711 
1436.877917  	90.974988 
1438.314795  	91.176864 
1439.751673  	91.382526 
1441.188551  	91.484953 
1442.625429  	91.610584 
1444.062307  	91.719878 
1445.499185  	91.598613 
1446.936063  	91.360576 
1448.372941  	90.962512 
1449.809818  	90.392009 
1451.246696  	89.807400 
1452.683574  	89.121993 
1454.120452  	88.583297 
1455.557330  	88.309973 
1456.994208  	87.870833 
1458.431086  	87.257085 
1459.867964  	86.675886 
1461.304842  	86.032880 
1462.741720  	85.386760 
1464.178598  	84.741353 
1465.615476  	84.247897 
1467.052353  	83.966086 
1468.489231  	84.176372 
1469.926109  	84.971190 
1471.362987  	85.936003 
1472.799865  	87.434640 
1474.236743  	88.784618 
1475.673621  	89.652517 
1477.110499  	90.663385 
1478.547377  	91.315366 
1479.984255  	91.857877 
1481.421133  	92.453418 
1482.858011  	92.818903 
1484.294888  	93.238865 
1485.731766  	93.518566 
1487.168644  	93.749056 
1488.605522  	94.037379 
1490.042400  	94.229901 
1491.479278  	94.456192 
1492.916156  	94.718879 
1494.353034  	94.905725 
1495.789912  	95.109723 
1497.226790  	95.274223 
1498.663668  	95.414400 
1500.100546  	95.642395 
1501.537423  	95.789630 
1502.974301  	95.954605 
1504.411179  	96.107576 
1505.848057  	96.148876 
1507.284935  	96.114603 
1508.721813  	96.241516 
1510.158691  	96.336723 
1511.595569  	96.454986 
1513.032447  	96.510249 
1514.469325  	96.562763 
1515.906203  	96.648023 
1517.343081  	96.652990 
1518.779958  	96.743634 
1520.216836  	96.860341 
1521.653714  	96.840467 
1523.090592  	96.879424 
1524.527470  	96.963233 
1525.964348  	97.009835 
1527.401226  	97.053803 
1528.838104  	97.087188 
1530.274982  	97.170969 
1531.711860  	97.240018 
1533.148738  	97.242344 
1534.585616  	97.228744 
1536.022493  	97.267007 
1537.459371  	97.359591 
1538.896249  	97.419240 
1540.333127  	97.333194 
1541.770005  	97.369274 
1543.206883  	97.448249 
1544.643761  	97.456016 
1546.080639  	97.473800 
1547.517517  	97.512060 
1548.954395  	97.545237 
1550.391273  	97.555467 
1551.828151  	97.582643 
1553.265028  	97.649296 
1554.701906  	97.653689 
1556.138784  	97.685712 
1557.575662  	97.823193 
1559.012540  	97.749031 
1560.449418  	97.646427 
1561.886296  	97.744043 
1563.323174  	97.800368 
1564.760052  	97.808319 
1566.196930  	97.809839 
1567.633808  	97.838023 
1569.070686  	97.893701 
1570.507563  	97.859334 
1571.944441  	97.851755 
1573.381319  	97.907802 
1574.818197  	97.949991 
1576.255075  	97.944299 
1577.691953  	97.898037 
1579.128831  	97.900159 
1580.565709  	97.946863 
1582.002587  	97.945933 
1583.439465  	97.909863 
1584.876343  	97.921151 
1586.313221  	97.900383 
1587.750098  	97.886710 
1589.186976  	97.889851 
1590.623854  	97.884986 
1592.060732  	97.893284 
1593.497610  	97.890595 
1594.934488  	97.873207 
1596.371366  	97.868730 
1597.808244  	97.851509 
1599.245122  	97.853207 
1600.682000  	97.839322 
1602.118878  	97.803715 
1603.555756  	97.801290 
1604.992633  	97.791245 
1606.429511  	97.756635 
1607.866389  	97.743503 
1609.303267  	97.724563 
1610.740145  	97.694763 
1612.177023  	97.657708 
1613.613901  	97.645051 
1615.050779  	97.661567 
1616.487657  	97.607969 
1617.924535  	97.495488 
1619.361413  	97.482593 
1620.798291  	97.487153 
1622.235168  	97.433641 
1623.672046  	97.324135 
1625.108924  	97.256206 
1626.545802  	97.254576 
1627.982680  	97.225102 
1629.419558  	97.141883 
1630.856436  	97.077804 
1632.293314  	97.021568 
1633.730192  	97.035027 
1635.167070  	97.018598 
1636.603948  	96.803402 
1638.040826  	96.795506 
1639.477703  	96.824627 
1640.914581  	96.762067 
1642.351459  	96.746264 
1643.788337  	96.797408 
1645.225215  	96.865197 
1646.662093  	96.808002 
1648.098971  	96.592285 
1649.535849  	96.635956 
1650.972727  	96.824484 
1652.409605  	96.906547 
1653.846483  	96.603770 
1655.283361  	96.625808 
1656.720239  	96.710283 
1658.157116  	96.789442 
1659.593994  	96.767713 
1661.030872  	96.798500 
1662.467750  	96.844086 
1663.904628  	96.785680 
1665.341506  	96.850152 
1666.778384  	96.959933 
1668.215262  	96.987449 
1669.652140  	96.976562 
1671.089018  	96.960991 
1672.525896  	97.051518 
1673.962774  	97.206969 
1675.399651  	97.208555 
1676.836529  	97.211562 
1678.273407  	97.278341 
1679.710285  	97.299528 
1681.147163  	97.349541 
1682.584041  	97.484029 
1684.020919  	97.509786 
1685.457797  	97.488822 
1686.894675  	97.573685 
1688.331553  	97.659413 
1689.768431  	97.719347 
1691.205309  	97.750860 
1692.642186  	97.804438 
1694.079064  	97.889322 
1695.515942  	97.915086 
1696.952820  	97.861688 
1698.389698  	97.953588 
1699.826576  	98.092783 
1701.263454  	97.999304 
1702.700332  	97.966085 
1704.137210  	98.054384 
1705.574088  	98.094565 
1707.010966  	98.072565 
1708.447844  	98.107223 
1709.884721  	98.116934 
1711.321599  	98.148112 
1712.758477  	98.183018 
1714.195355  	98.149056 
1715.632233  	98.163629 
1717.069111  	98.204857 
1718.505989  	98.148623 
1719.942867  	98.192529 
1721.379745  	98.251031 
1722.816623  	98.253241 
1724.253501  	98.226563 
1725.690379  	98.236304 
1727.127256  	98.278969 
1728.564134  	98.277954 
1730.001012  	98.233760 
1731.437890  	98.242702 
1732.874768  	98.298909 
1734.311646  	98.260891 
1735.748524  	98.224151 
1737.185402  	98.265289 
1738.622280  	98.319287 
1740.059158  	98.291520 
1741.496036  	98.253426 
1742.932914  	98.256803 
1744.369791  	98.248815 
1745.806669  	98.245109 
1747.243547  	98.224610 
1748.680425  	98.183297 
1750.117303  	98.184266 
1751.554181  	98.160155 
1752.991059  	98.148680 
1754.427937  	98.186264 
1755.864815  	98.173179 
1757.301693  	98.069856 
1758.738571  	98.033528 
1760.175449  	98.046795 
1761.612326  	98.041762 
1763.049204  	97.991188 
1764.486082  	97.945893 
1765.922960  	97.944136 
1767.359838  	97.935401 
1768.796716  	97.923238 
1770.233594  	98.002034 
1771.670472  	98.044271 
1773.107350  	98.050285 
1774.544228  	98.121062 
1775.981106  	98.174509 
1777.417984  	98.257607 
1778.854861  	98.314856 
1780.291739  	98.330553 
1781.728617  	98.351890 
1783.165495  	98.413318 
1784.602373  	98.477954 
1786.039251  	98.493438 
1787.476129  	98.506230 
1788.913007  	98.551706 
1790.349885  	98.592609 
1791.786763  	98.586180 
1793.223641  	98.556539 
1794.660519  	98.545314 
1796.097396  	98.581684 
1797.534274  	98.600519 
1798.971152  	98.580229 
1800.408030  	98.600257 
1801.844908  	98.591922 
1803.281786  	98.567595 
1804.718664  	98.604076 
1806.155542  	98.623297 
1807.592420  	98.626650 
1809.029298  	98.626019 
1810.466176  	98.610991 
1811.903054  	98.615314 
1813.339931  	98.636538 
1814.776809  	98.657481 
1816.213687  	98.688498 
1817.650565  	98.676063 
1819.087443  	98.657969 
1820.524321  	98.680792 
1821.961199  	98.714448 
1823.398077  	98.703917 
1824.834955  	98.651955 
1826.271833  	98.633682 
1827.708711  	98.700900 
1829.145589  	98.717657 
1830.582466  	98.675678 
1832.019344  	98.673680 
1833.456222  	98.684861 
1834.893100  	98.679516 
1836.329978  	98.688122 
1837.766856  	98.700627 
1839.203734  	98.700230 
1840.640612  	98.699860 
1842.077490  	98.730978 
1843.514368  	98.755910 
1844.951246  	98.706849 
1846.388124  	98.722699 
1847.825001  	98.745753 
1849.261879  	98.703055 
1850.698757  	98.692884 
1852.135635  	98.730190 
1853.572513  	98.726269 
1855.009391  	98.747519 
1856.446269  	98.758038 
1857.883147  	98.762610 
1859.320025  	98.755276 
1860.756903  	98.734790 
1862.193781  	98.752993 
1863.630659  	98.745770 
1865.067536  	98.732879 
1866.504414  	98.741531 
1867.941292  	98.711410 
1869.378170  	98.703815 
1870.815048  	98.774307 
1872.251926  	98.787920 
1873.688804  	98.782443 
1875.125682  	98.751377 
1876.562560  	98.717936 
1877.999438  	98.759615 
1879.436316  	98.808326 
1880.873194  	98.793979 
1882.310072  	98.784659 
1883.746949  	98.790586 
1885.183827  	98.804084 
1886.620705  	98.811579 
1888.057583  	98.844891 
1889.494461  	98.861931 
1890.931339  	98.766394 
1892.368217  	98.742707 
1893.805095  	98.809121 
1895.241973  	98.802840 
1896.678851  	98.797118 
1898.115729  	98.818901 
1899.552607  	98.771112 
1900.989484  	98.805689 
1902.426362  	98.834069 
1903.863240  	98.810388 
1905.300118  	98.791687 
1906.736996  	98.808399 
1908.173874  	98.807733 
1909.610752  	98.811708 
1911.047630  	98.836660 
1912.484508  	98.926129 
1913.921386  	98.936329 
1915.358264  	98.927298 
1916.795142  	98.937141 
1918.232019  	98.888101 
1919.668897  	98.867266 
1921.105775  	98.896884 
1922.542653  	98.878740 
1923.979531  	98.887893 
1925.416409  	98.898244 
1926.853287  	98.823260 
1928.290165  	98.827933 
1929.727043  	98.867321 
1931.163921  	98.882084 
1932.600799  	98.889929 
1934.037677  	98.900654 
1935.474554  	98.964228 
1936.911432  	98.917849 
1938.348310  	98.801123 
1939.785188  	98.904864 
1941.222066  	99.050677 
1942.658944  	99.020825 
1944.095822  	98.950388 
1945.532700  	98.949635 
1946.969578  	98.985145 
1948.406456  	98.985107 
1949.843334  	98.892277 
1951.280212  	98.836139 
1952.717089  	98.944249 
1954.153967  	99.099356 
1955.590845  	99.140858 
1957.027723  	99.081753 
1958.464601  	99.043305 
1959.901479  	99.036790 
1961.338357  	99.136128 
1962.775235  	99.256803 
1964.212113  	99.151182 
1965.648991  	99.151744 
1967.085869  	99.321462 
1968.522747  	99.268487 
1969.959624  	99.157817 
1971.396502  	99.219984 
1972.833380  	99.384615 
1974.270258  	99.473964 
1975.707136  	99.381026 
1977.144014  	99.442118 
1978.580892  	99.478317 
1980.017770  	99.162184 
1981.454648  	99.039888 
1982.891526  	99.146840 
1984.328404  	99.166643 
1985.765282  	99.142709 
1987.202159  	99.055602 
1988.639037  	99.008812 
1990.075915  	99.067365 
1991.512793  	99.084142 
1992.949671  	99.075172 
1994.386549  	99.059251 
1995.823427  	99.013089 
1997.260305  	99.118786 
1998.697183  	99.235635 
2000.134061  	99.224147 
2001.570939  	99.203757 
2003.007817  	99.129642 
2004.444694  	99.285964 
2005.881572  	99.550424 
2007.318450  	99.423877 
2008.755328  	99.312987 
2010.192206  	99.318207 
2011.629084  	99.216269 
2013.065962  	99.295778 
2014.502840  	99.529350 
2015.939718  	99.678339 
2017.376596  	99.712584 
2018.813474  	99.570054 
2020.250352  	99.317993 
2021.687229  	99.216986 
2023.124107  	99.588622 
2024.560985  	99.873967 
2025.997863  	99.514035 
2027.434741  	99.272754 
2028.871619  	99.402355 
2030.308497  	99.599367 
2031.745375  	99.832830 
2033.182253  	99.704921 
2034.619131  	99.515886 
2036.056009  	99.517105 
2037.492887  	99.155236 
2038.929764  	99.051227 
2040.366642  	99.454664 
2041.803520  	99.471949 
2043.240398  	99.259473 
2044.677276  	99.250013 
2046.114154  	99.282109 
2047.551032  	99.277861 
2048.987910  	99.224105 
2050.424788  	99.265716 
2051.861666  	99.320907 
2053.298544  	99.229082 
2054.735422  	99.168332 
2056.172299  	99.079486 
2057.609177  	99.016111 
2059.046055  	99.187834 
2060.482933  	99.271903 
2061.919811  	99.179196 
2063.356689  	99.142109 
2064.793567  	99.079787 
2066.230445  	99.054060 
2067.667323  	99.081602 
2069.104201  	99.075577 
2070.541079  	99.102224 
2071.977957  	99.046794 
2073.414834  	98.973819 
2074.851712  	99.020027 
2076.288590  	98.998626 
2077.725468  	98.975982 
2079.162346  	99.028093 
2080.599224  	98.966647 
2082.036102  	98.871667 
2083.472980  	98.878036 
2084.909858  	98.959809 
2086.346736  	99.040132 
2087.783614  	99.028545 
2089.220492  	99.017013 
2090.657369  	99.025687 
2092.094247  	99.002055 
2093.531125  	99.067275 
2094.968003  	99.138354 
2096.404881  	99.075583 
2097.841759  	98.978315 
2099.278637  	98.911702 
2100.715515  	98.942464 
2102.152393  	98.985768 
2103.589271  	98.936645 
2105.026149  	98.960124 
2106.463027  	98.967540 
2107.899904  	98.806593 
2109.336782  	98.698418 
2110.773660  	98.717235 
2112.210538  	98.754424 
2113.647416  	98.770319 
2115.084294  	98.747454 
2116.521172  	98.730627 
2117.958050  	98.706755 
2119.394928  	98.714157 
2120.831806  	98.819873 
2122.268684  	98.861294 
2123.705562  	98.828877 
2125.142440  	98.883297 
2126.579317  	98.961476 
2128.016195  	99.008568 
2129.453073  	98.995829 
2130.889951  	98.921643 
2132.326829  	98.892684 
2133.763707  	98.880784 
2135.200585  	98.896412 
2136.637463  	98.848305 
2138.074341  	98.646606 
2139.511219  	98.685194 
2140.948097  	98.897814 
2142.384975  	98.904596 
2143.821852  	98.998173 
2145.258730  	99.053042 
2146.695608  	98.856834 
2148.132486  	98.879570 
2149.569364  	98.957134 
2151.006242  	98.869131 
2152.443120  	98.982336 
2153.879998  	99.211183 
2155.316876  	99.497337 
2156.753754  	99.816132 
2158.190632  	99.734583 
2159.627510  	99.391556 
2161.064387  	99.094932 
2162.501265  	98.733757 
2163.938143  	98.404552 
2165.375021  	98.447265 
2166.811899  	98.688204 
2168.248777  	98.839090 
2169.685655  	99.027556 
2171.122533  	99.225149 
2172.559411  	99.185827 
2173.996289  	99.122844 
2175.433167  	99.061038 
2176.870045  	98.883029 
2178.306922  	98.846783 
2179.743800  	98.906041 
2181.180678  	99.006428 
2182.617556  	99.172141 
2184.054434  	99.100141 
2185.491312  	99.082783 
2186.928190  	99.370257 
2188.365068  	99.477284 
2189.801946  	99.354926 
2191.238824  	99.173174 
2192.675702  	99.012717 
2194.112580  	99.053279 
2195.549457  	99.086928 
2196.986335  	98.977004 
2198.423213  	98.939517 
2199.860091  	98.993470 
2201.296969  	99.075694 
2202.733847  	99.083387 
2204.170725  	99.020207 
2205.607603  	99.074253 
2207.044481  	99.155912 
2208.481359  	99.192315 
2209.918237  	99.227552 
2211.355115  	99.198148 
2212.791992  	99.263246 
2214.228870  	99.405438 
2215.665748  	99.338474 
2217.102626  	99.154414 
2218.539504  	99.084874 
2219.976382  	99.129500 
2221.413260  	99.039525 
2222.850138  	98.796195 
2224.287016  	98.826653 
2225.723894  	99.094116 
2227.160772  	99.207014 
2228.597650  	99.204296 
2230.034527  	99.107858 
2231.471405  	98.964559 
2232.908283  	99.007549 
2234.345161  	99.145764 
2235.782039  	99.183726 
2237.218917  	99.118750 
2238.655795  	99.045875 
2240.092673  	99.030683 
2241.529551  	98.948313 
2242.966429  	98.868065 
2244.403307  	98.939077 
2245.840185  	98.990300 
2247.277062  	99.030114 
2248.713940  	99.126622 
2250.150818  	99.112814 
2251.587696  	99.109092 
2253.024574  	99.129377 
2254.461452  	99.081750 
2255.898330  	99.047706 
2257.335208  	99.094219 
2258.772086  	99.092450 
2260.208964  	99.045042 
2261.645842  	99.033327 
2263.082720  	99.032795 
2264.519597  	98.973143 
2265.956475  	98.946339 
2267.393353  	98.983183 
2268.830231  	98.998965 
2270.267109  	98.961090 
2271.703987  	98.920542 
2273.140865  	98.900531 
2274.577743  	98.899619 
2276.014621  	98.900471 
2277.451499  	98.910190 
2278.888377  	98.910557 
2280.325255  	98.848175 
2281.762132  	98.811964 
2283.199010  	98.833111 
2284.635888  	98.827777 
2286.072766  	98.783313 
2287.509644  	98.760315 
2288.946522  	98.735339 
2290.383400  	98.738943 
2291.820278  	98.738270 
2293.257156  	98.408871 
2294.694034  	98.491538 
2296.130912  	98.602159 
2297.567790  	98.556460 
2299.004667  	98.534202 
2300.441545  	98.558631 
2301.878423  	98.595176 
2303.315301  	98.567972 
2304.752179  	98.544783 
2306.189057  	98.533620 
2307.625935  	98.445721 
2309.062813  	98.404479 
2310.499691  	98.435752 
2311.936569  	98.385151 
2313.373447  	98.316743 
2314.810325  	98.304139 
2316.247202  	98.293063 
2317.684080  	98.267755 
2319.120958  	98.203267 
2320.557836  	98.151206 
2321.994714  	98.149735 
2323.431592  	98.128418 
2324.868470  	98.134450 
2326.305348  	98.187647 
2327.742226  	98.222971 
2329.179104  	98.248944 
2330.615982  	98.239350 
2332.052860  	98.246602 
2333.489737  	98.360384 
2334.926615  	98.399448 
2336.363493  	98.326877 
2337.800371  	98.350431 
2339.237249  	98.362764 
2340.674127  	98.245399 
2342.111005  	98.224678 
2343.547883  	98.275189 
2344.984761  	98.171148 
2346.421639  	98.079333 
2347.858517  	98.142976 
2349.295395  	98.207036 
2350.732273  	98.236835 
2352.169150  	98.242952 
2353.606028  	98.195375 
2355.042906  	98.193421 
2356.479784  	98.247416 
2357.916662  	98.277194 
2359.353540  	98.299929 
2360.790418  	98.339399 
2362.227296  	98.334083 
2363.664174  	98.346649 
2365.101052  	98.403772 
2366.537930  	98.440262 
2367.974808  	98.445843 
2369.411685  	98.448839 
2370.848563  	98.478862 
2372.285441  	98.489583 
2373.722319  	98.499229 
2375.159197  	98.509500 
2376.596075  	98.508448 
2378.032953  	98.495595 
2379.469831  	98.533585 
2380.906709  	98.573881 
2382.343587  	98.599532 
2383.780465  	98.605348 
2385.217343  	98.599541 
2386.654220  	98.589888 
2388.091098  	98.590638 
2389.527976  	98.571370 
2390.964854  	98.540659 
2392.401732  	98.498631 
2393.838610  	98.474601 
2395.275488  	98.477307 
2396.712366  	98.446270 
2398.149244  	98.413719 
2399.586122  	98.439157 
2401.023000  	98.458659 
2402.459878  	98.413418 
2403.896755  	98.361381 
2405.333633  	98.389902 
2406.770511  	98.446550 
2408.207389  	98.432222 
2409.644267  	98.402842 
2411.081145  	98.400545 
2412.518023  	98.402078 
2413.954901  	98.436687 
2415.391779  	98.458313 
2416.828657  	98.423179 
2418.265535  	98.406053 
2419.702413  	98.434630 
2421.139290  	98.482781 
2422.576168  	98.497921 
2424.013046  	98.458013 
2425.449924  	98.475053 
2426.886802  	98.550405 
2428.323680  	98.561166 
2429.760558  	98.557047 
2431.197436  	98.601668 
2432.634314  	98.628070 
2434.071192  	98.625172 
2435.508070  	98.630292 
2436.944948  	98.617868 
2438.381825  	98.576813 
2439.818703  	98.579622 
2441.255581  	98.626075 
2442.692459  	98.635497 
2444.129337  	98.658954 
2445.566215  	98.732700 
2447.003093  	98.748140 
2448.439971  	98.700016 
2449.876849  	98.652472 
2451.313727  	98.614158 
2452.750605  	98.611973 
2454.187483  	98.623321 
2455.624360  	98.611133 
2457.061238  	98.629683 
2458.498116  	98.675916 
2459.934994  	98.669112 
2461.371872  	98.610340 
2462.808750  	98.564831 
2464.245628  	98.545810 
2465.682506  	98.527798 
2467.119384  	98.511817 
2468.556262  	98.490447 
2469.993140  	98.445866 
2471.430018  	98.411356 
2472.866895  	98.430233 
2474.303773  	98.479594 
2475.740651  	98.480183 
2477.177529  	98.431806 
2478.614407  	98.445107 
2480.051285  	98.496355 
2481.488163  	98.468160 
2482.925041  	98.410218 
2484.361919  	98.394326 
2485.798797  	98.401312 
2487.235675  	98.412211 
2488.672553  	98.404983 
2490.109430  	98.415242 
2491.546308  	98.454917 
2492.983186  	98.447820 
2494.420064  	98.425201 
2495.856942  	98.416952 
2497.293820  	98.382206 
2498.730698  	98.371756 
2500.167576  	98.367114 
2501.604454  	98.322631 
2503.041332  	98.314305 
2504.478210  	98.317032 
2505.915088  	98.299433 
2507.351965  	98.304543 
2508.788843  	98.254515 
2510.225721  	98.177331 
2511.662599  	98.189488 
2513.099477  	98.204261 
2514.536355  	98.182457 
2515.973233  	98.189521 
2517.410111  	98.192066 
2518.846989  	98.194462 
2520.283867  	98.218521 
2521.720745  	98.230146 
2523.157623  	98.225294 
2524.594500  	98.176919 
2526.031378  	98.114426 
2527.468256  	98.130715 
2528.905134  	98.172331 
2530.342012  	98.184508 
2531.778890  	98.204710 
2533.215768  	98.198304 
2534.652646  	98.188090 
2536.089524  	98.232652 
2537.526402  	98.240940 
2538.963280  	98.198590 
2540.400158  	98.200554 
2541.837035  	98.231432 
2543.273913  	98.282294 
2544.710791  	98.347051 
2546.147669  	98.343607 
2547.584547  	98.312132 
2549.021425  	98.341115 
2550.458303  	98.380839 
2551.895181  	98.372343 
2553.332059  	98.319305 
2554.768937  	98.267651 
2556.205815  	98.249009 
2557.642693  	98.233090 
2559.079570  	98.243304 
2560.516448  	98.277992 
2561.953326  	98.247237 
2563.390204  	98.193651 
2564.827082  	98.183124 
2566.263960  	98.149131 
2567.700838  	98.082698 
2569.137716  	98.024285 
2570.574594  	97.992916 
2572.011472  	98.003620 
2573.448350  	98.000593 
2574.885228  	97.963464 
2576.322105  	97.960240 
2577.758983  	97.997955 
2579.195861  	98.029813 
2580.632739  	98.005504 
2582.069617  	97.938755 
2583.506495  	97.922511 
2584.943373  	97.944200 
2586.380251  	97.951116 
2587.817129  	97.976396 
2589.254007  	97.991041 
2590.690885  	97.972320 
2592.127763  	97.979044 
2593.564641  	98.004815 
2595.001518  	98.028656 
2596.438396  	98.045992 
2597.875274  	98.019382 
2599.312152  	97.967740 
2600.749030  	97.940758 
2602.185908  	97.957035 
2603.622786  	97.996653 
2605.059664  	97.990465 
2606.496542  	97.964674 
2607.933420  	98.005649 
2609.370298  	98.045245 
2610.807176  	98.015772 
2612.244053  	97.983373 
2613.680931  	97.974112 
2615.117809  	97.974442 
2616.554687  	97.997549 
2617.991565  	98.027616 
2619.428443  	98.044414 
2620.865321  	98.035866 
2622.302199  	98.006944 
2623.739077  	98.007324 
2625.175955  	98.024485 
2626.612833  	98.004780 
2628.049711  	97.993336 
2629.486588  	98.005148 
2630.923466  	97.974389 
2632.360344  	97.931625 
2633.797222  	97.926836 
2635.234100  	97.920263 
2636.670978  	97.890928 
2638.107856  	97.851594 
2639.544734  	97.813300 
2640.981612  	97.772661 
2642.418490  	97.702214 
2643.855368  	97.633111 
2645.292246  	97.603542 
2646.729123  	97.563422 
2648.166001  	97.493911 
2649.602879  	97.426995 
2651.039757  	97.364579 
2652.476635  	97.309509 
2653.913513  	97.247908 
2655.350391  	97.172369 
2656.787269  	97.126218 
2658.224147  	97.105664 
2659.661025  	97.084097 
2661.097903  	97.085646 
2662.534781  	97.106748 
2663.971658  	97.145669 
2665.408536  	97.221536 
2666.845414  	97.288207 
2668.282292  	97.330627 
2669.719170  	97.391576 
2671.156048  	97.451216 
2672.592926  	97.498497 
2674.029804  	97.562756 
2675.466682  	97.616541 
2676.903560  	97.627682 
2678.340438  	97.619701 
2679.777316  	97.619559 
2681.214193  	97.630534 
2682.651071  	97.647793 
2684.087949  	97.661234 
2685.524827  	97.646448 
2686.961705  	97.599123 
2688.398583  	97.557040 
2689.835461  	97.530472 
2691.272339  	97.492318 
2692.709217  	97.445666 
2694.146095  	97.397729 
2695.582973  	97.345722 
2697.019851  	97.312118 
2698.456728  	97.288569 
2699.893606  	97.250674 
2701.330484  	97.229594 
2702.767362  	97.225564 
2704.204240  	97.201795 
2705.641118  	97.180639 
2707.077996  	97.164608 
2708.514874  	97.122858 
2709.951752  	97.087216 
2711.388630  	97.074708 
2712.825508  	97.063459 
2714.262386  	97.062137 
2715.699263  	97.052515 
2717.136141  	97.010998 
2718.573019  	96.973638 
2720.009897  	96.961024 
2721.446775  	96.961865 
2722.883653  	96.965666 
2724.320531  	96.962816 
2725.757409  	96.967745 
2727.194287  	96.983175 
2728.631165  	96.992551 
2730.068043  	97.008122 
2731.504921  	97.034647 
2732.941798  	97.062792 
2734.378676  	97.085914 
2735.815554  	97.096201 
2737.252432  	97.121371 
2738.689310  	97.158845 
2740.126188  	97.165718 
2741.563066  	97.170617 
2742.999944  	97.189034 
2744.436822  	97.185004 
2745.873700  	97.173872 
2747.310578  	97.167921 
2748.747456  	97.168542 
2750.184333  	97.181274 
2751.621211  	97.169300 
2753.058089  	97.149583 
2754.494967  	97.149442 
2755.931845  	97.119965 
2757.368723  	97.085252 
2758.805601  	97.076399 
2760.242479  	97.036108 
2761.679357  	96.995996 
2763.116235  	97.004085 
2764.553113  	96.996093 
2765.989991  	96.952553 
2767.426868  	96.913526 
2768.863746  	96.889035 
2770.300624  	96.878873 
2771.737502  	96.860100 
2773.174380  	96.813443 
2774.611258  	96.769554 
2776.048136  	96.751937 
2777.485014  	96.742796 
2778.921892  	96.716851 
2780.358770  	96.670395 
2781.795648  	96.630541 
2783.232526  	96.620577 
2784.669403  	96.618239 
2786.106281  	96.595183 
2787.543159  	96.560786 
2788.980037  	96.525211 
2790.416915  	96.500524 
2791.853793  	96.501288 
2793.290671  	96.494156 
2794.727549  	96.467818 
2796.164427  	96.449220 
2797.601305  	96.408836 
2799.038183  	96.351703 
2800.475061  	96.328947 
2801.911938  	96.309781 
2803.348816  	96.259057 
2804.785694  	96.184058 
2806.222572  	96.111806 
2807.659450  	96.078574 
2809.096328  	96.019539 
2810.533206  	95.908632 
2811.970084  	95.852915 
2813.406962  	95.827014 
2814.843840  	95.771328 
2816.280718  	95.743122 
2817.717596  	95.715957 
2819.154474  	95.679883 
2820.591351  	95.672136 
2822.028229  	95.617163 
2823.465107  	95.523577 
2824.901985  	95.470884 
2826.338863  	95.427435 
2827.775741  	95.371245 
2829.212619  	95.291420 
2830.649497  	95.182277 
2832.086375  	95.101365 
2833.523253  	95.051140 
2834.960131  	94.993161 
2836.397009  	94.905494 
2837.833886  	94.787442 
2839.270764  	94.686821 
2840.707642  	94.577816 
2842.144520  	94.429028 
2843.581398  	94.309298 
2845.018276  	94.191487 
2846.455154  	94.036830 
2847.892032  	93.897150 
2849.328910  	93.726500 
2850.765788  	93.481732 
2852.202666  	93.201110 
2853.639544  	92.902082 
2855.076421  	92.617921 
2856.513299  	92.343101 
2857.950177  	92.056058 
2859.387055  	91.768238 
2860.823933  	91.441369 
2862.260811  	91.100607 
2863.697689  	90.792388 
2865.134567  	90.481322 
2866.571445  	90.189760 
2868.008323  	89.896297 
2869.445201  	89.551830 
2870.882079  	89.220240 
2872.318956  	88.892513 
2873.755834  	88.550788 
2875.192712  	88.240104 
2876.629590  	87.915237 
2878.066468  	87.569624 
2879.503346  	87.244231 
2880.940224  	86.953604 
2882.377102  	86.743057 
2883.813980  	86.636462 
2885.250858  	86.676106 
2886.687736  	86.814355 
2888.124614  	86.915820 
2889.561491  	87.037665 
2890.998369  	87.224758 
2892.435247  	87.425805 
2893.872125  	87.666183 
2895.309003  	87.879075 
2896.745881  	88.037735 
2898.182759  	88.214450 
2899.619637  	88.354083 
2901.056515  	88.470652 
2902.493393  	88.609274 
2903.930271  	88.694114 
2905.367149  	88.755142 
2906.804026  	88.830797 
2908.240904  	88.874907 
2909.677782  	88.873551 
2911.114660  	88.797470 
2912.551538  	88.695148 
2913.988416  	88.635232 
2915.425294  	88.569627 
2916.862172  	88.502389 
2918.299050  	88.438226 
2919.735928  	88.347883 
2921.172806  	88.273658 
2922.609684  	88.199164 
2924.046561  	88.089985 
2925.483439  	87.934877 
2926.920317  	87.688414 
2928.357195  	87.397320 
2929.794073  	87.136738 
2931.230951  	86.960512 
2932.667829  	86.921448 
2934.104707  	86.956587 
2935.541585  	87.039794 
2936.978463  	87.191440 
2938.415341  	87.375031 
2939.852219  	87.628194 
2941.289096  	87.951083 
2942.725974  	88.291848 
2944.162852  	88.621362 
2945.599730  	88.816166 
2947.036608  	88.846566 
2948.473486  	88.789392 
2949.910364  	88.571494 
2951.347242  	88.126982 
2952.784120  	87.485213 
2954.220998  	86.656357 
2955.657876  	85.619242 
2957.094754  	84.261308 
2958.531631  	82.532570 
2959.968509  	80.438940 
2961.405387  	77.902037 
2962.842265  	75.027464 
2964.279143  	71.890513 
2965.716021  	68.572364 
2967.152899  	65.617039 
2968.589777  	63.330953 
2970.026655  	61.960430 
2971.463533  	62.092451 
2972.900411  	63.615025 
2974.337289  	65.919125 
2975.774166  	68.459135 
2977.211044  	70.940397 
2978.647922  	73.408296 
2980.084800  	75.678115 
2981.521678  	77.804950 
2982.958556  	80.411459 
2984.395434  	83.318443 
2985.832312  	85.622134 
2987.269190  	87.210026 
2988.706068  	88.496542 
2990.142946  	89.511876 
2991.579824  	90.297165 
2993.016701  	91.028065 
2994.453579  	91.665572 
2995.890457  	92.171127 
2997.327335  	92.611918 
2998.764213  	93.015611 
3000.201091  	93.403839 
3001.637969  	93.800987 
3003.074847  	94.209204 
3004.511725  	94.587352 
3005.948603  	94.898924 
3007.385481  	95.188485 
3008.822359  	95.460060 
3010.259236  	95.678490 
3011.696114  	95.877483 
3013.132992  	96.068223 
3014.569870  	96.224762 
3016.006748  	96.328610 
3017.443626  	96.398048 
3018.880504  	96.502709 
3020.317382  	96.608258 
3021.754260  	96.641339 
3023.191138  	96.656311 
3024.628016  	96.694134 
3026.064894  	96.744823 
3027.501771  	96.784395 
3028.938649  	96.774741 
3030.375527  	96.771252 
3031.812405  	96.792135 
3033.249283  	96.764597 
3034.686161  	96.741231 
3036.123039  	96.768765 
3037.559917  	96.770425 
3038.996795  	96.737731 
3040.433673  	96.733695 
3041.870551  	96.771329 
3043.307429  	96.789366 
3044.744306  	96.757962 
3046.181184  	96.739015 
3047.618062  	96.736429 
3049.054940  	96.731220 
3050.491818  	96.752793 
3051.928696  	96.749260 
3053.365574  	96.715001 
3054.802452  	96.714923 
3056.239330  	96.693541 
3057.676208  	96.653370 
3059.113086  	96.665007 
3060.549964  	96.655085 
3061.986842  	96.597276 
3063.423719  	96.565455 
3064.860597  	96.549647 
3066.297475  	96.512574 
3067.734353  	96.461458 
3069.171231  	96.426398 
3070.608109  	96.410106 
3072.044987  	96.385778 
3073.481865  	96.370274 
3074.918743  	96.343522 
3076.355621  	96.275881 
3077.792499  	96.241980 
3079.229377  	96.227853 
3080.666254  	96.168629 
3082.103132  	96.129619 
3083.540010  	96.090100 
3084.976888  	95.999870 
3086.413766  	95.963280 
3087.850644  	95.988776 
3089.287522  	95.978626 
3090.724400  	95.923340 
3092.161278  	95.853661 
3093.598156  	95.816158 
3095.035034  	95.810322 
3096.471912  	95.768709 
3097.908789  	95.696030 
3099.345667  	95.623224 
3100.782545  	95.546772 
3102.219423  	95.474459 
3103.656301  	95.401298 
3105.093179  	95.354655 
3106.530057  	95.345856 
3107.966935  	95.294020 
3109.403813  	95.189957 
3110.840691  	95.103866 
3112.277569  	95.047925 
3113.714447  	95.008293 
3115.151324  	94.950879 
3116.588202  	94.852924 
3118.025080  	94.766233 
3119.461958  	94.722218 
3120.898836  	94.681688 
3122.335714  	94.622264 
3123.772592  	94.572374 
3125.209470  	94.516381 
3126.646348  	94.401737 
3128.083226  	94.292950 
3129.520104  	94.251484 
3130.956982  	94.191684 
3132.393859  	94.095298 
3133.830737  	94.018075 
3135.267615  	93.939398 
3136.704493  	93.861363 
3138.141371  	93.799546 
3139.578249  	93.724950 
3141.015127  	93.627331 
3142.452005  	93.502647 
3143.888883  	93.383347 
3145.325761  	93.316499 
3146.762639  	93.238460 
3148.199517  	93.094089 
3149.636394  	92.969062 
3151.073272  	92.910446 
3152.510150  	92.826038 
3153.947028  	92.694110 
3155.383906  	92.592728 
3156.820784  	92.500153 
3158.257662  	92.402500 
3159.694540  	92.337782 
3161.131418  	92.223685 
3162.568296  	92.055389 
3164.005174  	91.934012 
3165.442052  	91.823801 
3166.878929  	91.707020 
3168.315807  	91.601500 
3169.752685  	91.469521 
3171.189563  	91.354508 
3172.626441  	91.241780 
3174.063319  	91.079026 
3175.500197  	90.941045 
3176.937075  	90.808442 
3178.373953  	90.645028 
3179.810831  	90.537976 
3181.247709  	90.453459 
3182.684587  	90.312823 
3184.121464  	90.153259 
3185.558342  	90.018911 
3186.995220  	89.893216 
3188.432098  	89.744430 
3189.868976  	89.604166 
3191.305854  	89.472333 
3192.742732  	89.316574 
3194.179610  	89.193711 
3195.616488  	89.080483 
3197.053366  	88.928978 
3198.490244  	88.793673 
3199.927122  	88.645906 
3201.363999  	88.495004 
3202.800877  	88.378977 
3204.237755  	88.225026 
3205.674633  	88.085460 
3207.111511  	87.979741 
3208.548389  	87.812699 
3209.985267  	87.660875 
3211.422145  	87.554659 
3212.859023  	87.415184 
3214.295901  	87.233383 
3215.732779  	87.033706 
3217.169657  	86.913601 
3218.606534  	86.823607 
3220.043412  	86.641423 
3221.480290  	86.484881 
3222.917168  	86.346322 
3224.354046  	86.162500 
3225.790924  	86.063927 
3227.227802  	85.973113 
3228.664680  	85.792659 
3230.101558  	85.628463 
3231.538436  	85.490258 
3232.975314  	85.348575 
3234.412192  	85.184154 
3235.849069  	85.030650 
3237.285947  	84.937018 
3238.722825  	84.790188 
3240.159703  	84.628180 
3241.596581  	84.527392 
3243.033459  	84.335308 
3244.470337  	84.125684 
3245.907215  	84.035934 
3247.344093  	83.946852 
3248.780971  	83.816029 
3250.217849  	83.665056 
3251.654727  	83.518128 
3253.091604  	83.401791 
3254.528482  	83.270621 
3255.965360  	83.142341 
3257.402238  	82.988217 
3258.839116  	82.808854 
3260.275994  	82.723183 
3261.712872  	82.638362 
3263.149750  	82.501414 
3264.586628  	82.408660 
3266.023506  	82.283730 
3267.460384  	82.137385 
3268.897262  	82.032975 
3270.334139  	81.912386 
3271.771017  	81.786850 
3273.207895  	81.620160 
3274.644773  	81.440485 
3276.081651  	81.365965 
3277.518529  	81.317944 
3278.955407  	81.234308 
3280.392285  	81.092343 
3281.829163  	80.903592 
3283.266041  	80.825240 
3284.702919  	80.788376 
3286.139797  	80.678963 
3287.576674  	80.601086 
3289.013552  	80.530453 
3290.450430  	80.439080 
3291.887308  	80.346074 
3293.324186  	80.203177 
3294.761064  	80.084780 
3296.197942  	80.022712 
3297.634820  	79.981682 
3299.071698  	79.950672 
3300.508576  	79.864819 
3301.945454  	79.775659 
3303.382332  	79.687830 
3304.819210  	79.541998 
3306.256087  	79.460365 
3307.692965  	79.408524 
3309.129843  	79.308442 
3310.566721  	79.274891 
3312.003599  	79.262106 
3313.440477  	79.208307 
3314.877355  	79.148587 
3316.314233  	79.096571 
3317.751111  	79.083374 
3319.187989  	79.014244 
3320.624867  	78.901688 
3322.061745  	78.871986 
3323.498622  	78.834192 
3324.935500  	78.797379 
3326.372378  	78.796574 
3327.809256  	78.748028 
3329.246134  	78.731643 
3330.683012  	78.698517 
3332.119890  	78.592287 
3333.556768  	78.559797 
3334.993646  	78.577509 
3336.430524  	78.627987 
3337.867402  	78.667699 
3339.304280  	78.603103 
3340.741157  	78.605516 
3342.178035  	78.645878 
3343.614913  	78.627556 
3345.051791  	78.687175 
3346.488669  	78.694809 
3347.925547  	78.647317 
3349.362425  	78.720962 
3350.799303  	78.781669 
3352.236181  	78.834706 
3353.673059  	78.909982 
3355.109937  	78.926494 
3356.546815  	78.986170 
3357.983692  	79.037957 
3359.420570  	79.091113 
3360.857448  	79.229421 
3362.294326  	79.266684 
3363.731204  	79.297552 
3365.168082  	79.422921 
3366.604960  	79.445482 
3368.041838  	79.489043 
3369.478716  	79.629373 
3370.915594  	79.738232 
3372.352472  	79.860468 
3373.789350  	79.973743 
3375.226227  	80.088478 
3376.663105  	80.218862 
3378.099983  	80.288379 
3379.536861  	80.411082 
3380.973739  	80.568926 
3382.410617  	80.628773 
3383.847495  	80.684524 
3385.284373  	80.795845 
3386.721251  	80.978218 
3388.158129  	81.163364 
3389.595007  	81.232797 
3391.031885  	81.327241 
3392.468762  	81.512202 
3393.905640  	81.686351 
3395.342518  	81.855615 
3396.779396  	81.997096 
3398.216274  	82.118649 
3399.653152  	82.251207 
3401.090030  	82.384962 
3402.526908  	82.557478 
3403.963786  	82.707220 
3405.400664  	82.837083 
3406.837542  	83.012310 
3408.274420  	83.140482 
3409.711297  	83.263441 
3411.148175  	83.420417 
3412.585053  	83.535475 
3414.021931  	83.690453 
3415.458809  	83.870351 
3416.895687  	84.066055 
3418.332565  	84.324533 
3419.769443  	84.454400 
3421.206321  	84.507528 
3422.643199  	84.683974 
3424.080077  	84.866310 
3425.516955  	85.046236 
3426.953832  	85.234127 
3428.390710  	85.357660 
3429.827588  	85.512812 
3431.264466  	85.690160 
3432.701344  	85.854705 
3434.138222  	86.031386 
3435.575100  	86.140131 
3437.011978  	86.259002 
3438.448856  	86.468045 
3439.885734  	86.657172 
3441.322612  	86.795776 
3442.759490  	86.913974 
3444.196367  	87.071241 
3445.633245  	87.257676 
3447.070123  	87.379279 
3448.507001  	87.523535 
3449.943879  	87.725655 
3451.380757  	87.883456 
3452.817635  	88.034358 
3454.254513  	88.204591 
3455.691391  	88.359471 
3457.128269  	88.474836 
3458.565147  	88.585199 
3460.002025  	88.769094 
3461.438902  	88.921147 
3462.875780  	89.030765 
3464.312658  	89.252727 
3465.749536  	89.445948 
3467.186414  	89.546696 
3468.623292  	89.696773 
3470.060170  	89.843932 
3471.497048  	89.988357 
3472.933926  	90.142586 
3474.370804  	90.227622 
3475.807682  	90.347155 
3477.244560  	90.527990 
3478.681437  	90.667367 
3480.118315  	90.775957 
3481.555193  	90.853507 
3482.992071  	90.946670 
3484.428949  	91.110932 
3485.865827  	91.273508 
3487.302705  	91.409166 
3488.739583  	91.551977 
3490.176461  	91.725838 
3491.613339  	91.870855 
3493.050217  	91.936391 
3494.487095  	92.065684 
3495.923972  	92.250610 
3497.360850  	92.315221 
3498.797728  	92.380105 
3500.234606  	92.542702 
3501.671484  	92.638337 
3503.108362  	92.648624 
3504.545240  	92.726851 
3505.982118  	92.886675 
3507.418996  	93.030420 
3508.855874  	93.159468 
3510.292752  	93.282002 
3511.729630  	93.362302 
3513.166507  	93.494599 
3514.603385  	93.670099 
3516.040263  	93.751759 
3517.477141  	93.820016 
3518.914019  	93.931013 
3520.350897  	94.016602 
3521.787775  	94.087587 
3523.224653  	94.121364 
3524.661531  	94.205918 
3526.098409  	94.406113 
3527.535287  	94.516050 
3528.972165  	94.538433 
3530.409043  	94.604677 
3531.845920  	94.666923 
3533.282798  	94.784063 
3534.719676  	94.937237 
3536.156554  	95.013911 
3537.593432  	95.102563 
3539.030310  	95.223991 
3540.467188  	95.315177 
3541.904066  	95.417057 
3543.340944  	95.527573 
3544.777822  	95.610836 
3546.214700  	95.631316 
3547.651578  	95.624505 
3549.088455  	95.713558 
3550.525333  	95.855588 
3551.962211  	95.936913 
3553.399089  	95.964701 
3554.835967  	96.035171 
3556.272845  	96.183834 
3557.709723  	96.305719 
3559.146601  	96.333068 
3560.583479  	96.333752 
3562.020357  	96.356008 
3563.457235  	96.441077 
3564.894113  	96.572655 
3566.330990  	96.603499 
3567.767868  	96.534351 
3569.204746  	96.626934 
3570.641624  	96.810957 
3572.078502  	96.905073 
3573.515380  	96.924208 
3574.952258  	96.938554 
3576.389136  	96.947543 
3577.826014  	96.989535 
3579.262892  	97.084915 
3580.699770  	97.132609 
3582.136648  	97.139245 
3583.573525  	97.208379 
3585.010403  	97.270680 
3586.447281  	97.250861 
3587.884159  	97.190287 
3589.321037  	97.201841 
3590.757915  	97.316007 
3592.194793  	97.425554 
3593.631671  	97.450909 
3595.068549  	97.435114 
3596.505427  	97.445947 
3597.942305  	97.492533 
3599.379183  	97.541001 
3600.816060  	97.554462 
3602.252938  	97.558501 
3603.689816  	97.630111 
3605.126694  	97.692958 
3606.563572  	97.698316 
3608.000450  	97.672947 
3609.437328  	97.642149 
3610.874206  	97.665690 
3612.311084  	97.735500 
3613.747962  	97.734394 
3615.184840  	97.719249 
3616.621718  	97.817185 
3618.058595  	97.907493 
3619.495473  	97.835681 
3620.932351  	97.784060 
3622.369229  	97.912530 
3623.806107  	98.018204 
3625.242985  	98.002110 
3626.679863  	97.975387 
3628.116741  	97.990590 
3629.553619  	97.864298 
3630.990497  	97.810494 
3632.427375  	97.972437 
3633.864253  	98.039110 
3635.301130  	97.913471 
3636.738008  	97.898224 
3638.174886  	97.998022 
3639.611764  	98.043047 
3641.048642  	98.052618 
3642.485520  	98.047805 
3643.922398  	98.039289 
3645.359276  	98.093991 
3646.796154  	98.117674 
3648.233032  	98.047432 
3649.669910  	97.977766 
3651.106788  	97.890539 
3652.543665  	97.926260 
3653.980543  	98.091407 
3655.417421  	98.159108 
3656.854299  	98.040378 
3658.291177  	97.980427 
3659.728055  	98.063713 
3661.164933  	98.167885 
3662.601811  	98.177175 
3664.038689  	98.153092 
3665.475567  	98.190805 
3666.912445  	98.235908 
3668.349323  	98.274123 
3669.786200  	98.302395 
3671.223078  	98.166084 
3672.659956  	98.180246 
3674.096834  	98.349362 
3675.533712  	98.282709 
3676.970590  	98.056863 
3678.407468  	98.227101 
3679.844346  	98.363435 
3681.281224  	98.383277 
3682.718102  	98.435664 
3684.154980  	98.460340 
3685.591858  	98.479664 
3687.028735  	98.591200 
3688.465613  	98.621742 
3689.902491  	98.484029 
3691.339369  	98.485906 
3692.776247  	98.568672 
3694.213125  	98.673081 
3695.650003  	98.749717 
3697.086881  	98.721804 
3698.523759  	98.727526 
3699.960637  	98.820842 
3701.397515  	98.817438 
3702.834393  	98.746883 
3704.271270  	98.772456 
3705.708148  	98.835504 
3707.145026  	98.877455 
3708.581904  	98.856098 
3710.018782  	98.784859 
3711.455660  	98.764785 
3712.892538  	98.748256 
3714.329416  	98.768048 
3715.766294  	98.857326 
3717.203172  	98.934850 
3718.640050  	98.923298 
3720.076928  	98.895634 
3721.513805  	98.886258 
3722.950683  	98.849991 
3724.387561  	98.843877 
3725.824439  	98.858760 
3727.261317  	98.844178 
3728.698195  	98.857913 
3730.135073  	98.941590 
3731.571951  	98.972827 
3733.008829  	98.886601 
3734.445707  	98.890295 
3735.882585  	98.902863 
3737.319463  	98.863327 
3738.756340  	98.953261 
3740.193218  	99.011379 
3741.630096  	99.037681 
3743.066974  	99.168031 
3744.503852  	99.139449 
3745.940730  	98.858331 
3747.377608  	99.033987 
3748.814486  	99.246834 
3750.251364  	99.178612 
3751.688242  	99.040494 
3753.125120  	99.014592 
3754.561998  	99.051814 
3755.998875  	99.159958 
3757.435753  	99.197221 
3758.872631  	99.154731 
3760.309509  	99.106370 
3761.746387  	99.077995 
3763.183265  	99.163833 
3764.620143  	99.248652 
3766.057021  	99.127776 
3767.493899  	99.091812 
3768.930777  	99.203040 
3770.367655  	99.166098 
3771.804533  	99.084821 
3773.241411  	99.125166 
3774.678288  	99.151728 
3776.115166  	99.148293 
3777.552044  	99.187293 
3778.988922  	99.161373 
3780.425800  	98.997726 
3781.862678  	98.979043 
3783.299556  	99.099888 
3784.736434  	99.067922 
3786.173312  	98.963884 
3787.610190  	99.022049 
3789.047068  	99.095720 
3790.483946  	99.058008 
3791.920823  	98.984584 
3793.357701  	98.999764 
3794.794579  	99.098285 
3796.231457  	99.068110 
3797.668335  	98.896075 
3799.105213  	98.962462 
3800.542091  	99.094217 
3801.978969  	98.869175 
3803.415847  	98.715093 
3804.852725  	98.987249 
3806.289603  	99.190024 
3807.726481  	98.954535 
3809.163358  	98.796074 
3810.600236  	98.936127 
3812.037114  	99.015300 
3813.473992  	99.075598 
3814.910870  	99.167748 
3816.347748  	98.932776 
3817.784626  	98.761614 
3819.221504  	99.064200 
3820.658382  	99.209130 
3822.095260  	98.788792 
3823.532138  	98.746391 
3824.969016  	99.043682 
3826.405893  	99.127090 
3827.842771  	98.983764 
3829.279649  	99.027849 
3830.716527  	99.119973 
3832.153405  	99.004819 
3833.590283  	98.887047 
3835.027161  	98.924460 
3836.464039  	98.975370 
3837.900917  	98.891299 
3839.337795  	98.732714 
3840.774673  	98.791429 
3842.211551  	98.951824 
3843.648428  	98.969553 
3845.085306  	98.938314 
3846.522184  	98.995161 
3847.959062  	99.028314 
3849.395940  	99.014523 
3850.832818  	99.053782 
3852.269696  	99.128691 
3853.706574  	98.942830 
3855.143452  	98.746117 
3856.580330  	98.893710 
3858.017208  	99.001961 
3859.454086  	99.049117 
3860.890963  	99.070222 
3862.327841  	99.049479 
3863.764719  	99.011785 
3865.201597  	98.950435 
3866.638475  	98.954668 
3868.075353  	99.140263 
3869.512231  	99.163745 
3870.949109  	98.875826 
3872.385987  	98.950624 
3873.822865  	99.144695 
3875.259743  	99.088689 
3876.696621  	99.048517 
3878.133498  	99.124413 
3879.570376  	99.121746 
3881.007254  	99.004450 
3882.444132  	98.965026 
3883.881010  	99.064056 
3885.317888  	99.107522 
3886.754766  	98.975529 
3888.191644  	99.005126 
3889.628522  	99.152458 
3891.065400  	99.181842 
3892.502278  	99.050371 
3893.939156  	99.017533 
3895.376033  	99.088440 
3896.812911  	99.159659 
3898.249789  	99.168730 
3899.686667  	99.120455 
3901.123545  	99.095204 
3902.560423  	99.124472 
3903.997301  	99.103374 
3905.434179  	99.024576 
3906.871057  	99.028661 
3908.307935  	99.119309 
3909.744813  	99.184459 
3911.181691  	99.147177 
3912.618568  	99.049979 
3914.055446  	99.067213 
3915.492324  	99.132326 
3916.929202  	99.087300 
3918.366080  	99.006450 
3919.802958  	98.993518 
3921.239836  	99.013590 
3922.676714  	99.084234 
3924.113592  	99.109650 
3925.550470  	99.042249 
3926.987348  	99.048601 
3928.424226  	99.092727 
3929.861103  	99.075390 
3931.297981  	99.041479 
3932.734859  	98.989417 
3934.171737  	98.974897 
3935.608615  	99.048260 
3937.045493  	99.089603 
3938.482371  	99.094643 
3939.919249  	99.114627 
3941.356127  	99.119109 
3942.793005  	99.101534 
3944.229883  	99.086557 
3945.666761  	99.124697 
3947.103638  	99.158765 
3948.540516  	99.155739 
3949.977394  	99.144715 
3951.414272  	99.126837 
3952.851150  	99.118304 
3954.288028  	99.145370 
3955.724906  	99.141464 
3957.161784  	99.063313 
3958.598662  	99.043087 
3960.035540  	99.084422 
3961.472418  	99.093200 
3962.909296  	99.107392 
3964.346173  	99.142038 
3965.783051  	99.124526 
3967.219929  	99.075536 
3968.656807  	99.060118 
3970.093685  	99.059404 
3971.530563  	99.057445 
3972.967441  	99.074107 
3974.404319  	99.088926 
3975.841197  	99.089625 
3977.278075  	99.084933 
3978.714953  	99.062715 
3980.151831  	99.042870 
3981.588708  	99.060761 
3983.025586  	99.093713 
3984.462464  	99.095188 
3985.899342  	99.074211 
3987.336220  	99.070390 
3988.773098  	99.064386 
3990.209976  	99.042570 
3991.646854  	99.053507 
3993.083732  	99.081969 
3994.520610  	99.086485 
3995.957488  	99.080085 
3997.394366  	99.052524 
3998.831244  	99.023057 
4000.268121  	99.037140 